Absorption wavelength (nm);normalized Absorption;emission wavelength (nm);Normalized emission;
980;1.0000;300;0.0001;
981;0.0000;301;0.0001;
988;0.0000;302;0.0001;
;;303;0.0001;
;;304;0.0001;
;;305;0.0001;
;;306;0.0001;
;;307;0.0001;
;;308;0.0001;
;;309;0.0001;
;;310;0.0001;
;;311;0.0001;
;;312;0.0001;
;;313;0.0001;
;;314;0.0001;
;;315;0.0001;
;;316;0.0001;
;;317;0.0001;
;;318;0.0001;
;;319;0.0001;
;;320;0.0001;
;;321;0.0001;
;;322;0.0001;
;;323;0.0001;
;;324;0.0001;
;;325;0.0001;
;;326;0.0001;
;;327;0.0001;
;;328;0.0001;
;;329;0.0001;
;;330;0.0001;
;;331;0.0001;
;;332;0.0001;
;;333;0.0001;
;;334;0.0001;
;;335;0.0001;
;;336;0.0001;
;;337;0.0001;
;;338;0.0001;
;;339;0.0001;
;;340;0.0001;
;;341;0.0001;
;;342;0.0001;
;;343;0.0001;
;;344;0.0001;
;;345;0.0001;
;;346;0.0001;
;;347;0.0001;
;;348;0.0001;
;;349;0.0001;
;;350;0.0001;
;;351;0.0001;
;;352;0.0001;
;;353;0.0001;
;;354;0.0001;
;;355;0.0001;
;;356;0.0001;
;;357;0.0001;
;;358;0.0001;
;;359;0.0001;
;;360;0.0001;
;;361;0.0001;
;;362;0.0001;
;;363;0.0001;
;;364;0.0001;
;;365;0.0001;
;;366;0.0001;
;;367;0.0001;
;;368;0.0001;
;;369;0.0001;
;;370;0.0001;
;;371;0.0001;
;;372;0.0001;
;;373;0.0001;
;;374;0.0001;
;;375;0.0001;
;;376;0.0001;
;;377;0.0001;
;;378;0.0001;
;;379;0.0001;
;;380;0.0001;
;;381;0.0001;
;;382;0.0001;
;;383;0.0001;
;;384;0.0001;
;;385;0.0001;
;;386;0.0001;
;;387;0.0001;
;;388;0.0001;
;;389;0.0001;
;;390;0.0001;
;;391;0.0001;
;;392;0.0001;
;;393;0.0001;
;;394;0.0001;
;;395;0.0001;
;;396;0.0001;
;;397;0.0001;
;;398;0.0001;
;;399;0.0001;
;;400;0.0001;
;;401;0.0001;
;;402;0.0001;
;;403;0.0001;
;;404;0.0001;
;;405;0.0001;
;;406;0.0001;
;;407;0.0001;
;;408;0.0001;
;;409;0.0001;
;;410;0.0001;
;;411;0.0001;
;;412;0.0001;
;;413;0.0001;
;;414;0.0001;
;;415;0.0001;
;;416;0.0001;
;;417;0.0001;
;;418;0.0001;
;;419;0.0001;
;;420;0.0001;
;;421;0.0001;
;;422;0.0001;
;;423;0.0001;
;;424;0.0001;
;;425;0.0001;
;;426;0.0001;
;;427;0.0001;
;;428;0.0001;
;;429;0.0001;
;;430;0.0001;
;;431;0.0001;
;;432;0.0001;
;;433;0.0001;
;;434;0.0001;
;;435;0.0001;
;;436;0.0001;
;;437;0.0001;
;;438;0.0001;
;;439;0.0001;
;;440;0.0001;
;;441;0.0001;
;;442;0.0001;
;;443;0.0001;
;;444;0.0001;
;;445;0.0001;
;;446;0.0001;
;;447;0.0001;
;;448;0.0001;
;;449;0.0001;
;;450;0.0001;
;;451;0.0001;
;;452;0.0001;
;;453;0.0001;
;;454;0.0001;
;;455;0.0001;
;;456;0.0001;
;;457;0.0001;
;;458;0.0001;
;;459;0.0002;
;;460;0.0002;
;;461;0.0002;
;;462;0.0003;
;;463;0.0005;
;;464;0.0010;
;;465;0.0018;
;;466;0.0031;
;;467;0.0046;
;;468;0.0068;
;;469;0.0099;
;;470;0.0133;
;;471;0.0173;
;;472;0.0220;
;;473;0.0272;
;;474;0.0316;
;;475;0.0356;
;;476;0.0387;
;;477;0.0410;
;;478;0.0432;
;;479;0.0443;
;;480;0.0453;
;;481;0.0452;
;;482;0.0438;
;;483;0.0408;
;;484;0.0368;
;;485;0.0325;
;;486;0.0281;
;;487;0.0242;
;;488;0.0208;
;;489;0.0174;
;;490;0.0143;
;;491;0.0114;
;;492;0.0088;
;;493;0.0067;
;;494;0.0051;
;;495;0.0039;
;;496;0.0030;
;;497;0.0023;
;;498;0.0018;
;;499;0.0014;
;;500;0.0010;
;;501;0.0008;
;;502;0.0006;
;;503;0.0005;
;;504;0.0004;
;;505;0.0003;
;;506;0.0002;
;;507;0.0002;
;;508;0.0002;
;;509;0.0001;
;;510;0.0001;
;;511;0.0001;
;;512;0.0001;
;;513;0.0001;
;;514;0.0001;
;;515;0.0001;
;;516;0.0001;
;;517;0.0001;
;;518;0.0001;
;;519;0.0001;
;;520;0.0001;
;;521;0.0001;
;;522;0.0001;
;;523;0.0002;
;;524;0.0002;
;;525;0.0002;
;;526;0.0002;
;;527;0.0002;
;;528;0.0002;
;;529;0.0002;
;;530;0.0002;
;;531;0.0002;
;;532;0.0002;
;;533;0.0002;
;;534;0.0002;
;;535;0.0002;
;;536;0.0002;
;;537;0.0002;
;;538;0.0002;
;;539;0.0001;
;;540;0.0001;
;;541;0.0002;
;;542;0.0002;
;;543;0.0002;
;;544;0.0002;
;;545;0.0003;
;;546;0.0003;
;;547;0.0004;
;;548;0.0005;
;;549;0.0006;
;;550;0.0006;
;;551;0.0006;
;;552;0.0006;
;;553;0.0005;
;;554;0.0005;
;;555;0.0005;
;;556;0.0005;
;;557;0.0004;
;;558;0.0004;
;;559;0.0003;
;;560;0.0003;
;;561;0.0002;
;;562;0.0002;
;;563;0.0002;
;;564;0.0002;
;;565;0.0001;
;;566;0.0001;
;;567;0.0001;
;;568;0.0001;
;;569;0.0001;
;;570;0.0001;
;;571;0.0001;
;;572;0.0001;
;;573;0.0001;
;;574;0.0001;
;;575;0.0001;
;;576;0.0001;
;;577;0.0001;
;;578;0.0001;
;;579;0.0001;
;;580;0.0001;
;;581;0.0001;
;;582;0.0001;
;;583;0.0001;
;;584;0.0001;
;;585;0.0001;
;;586;0.0001;
;;587;0.0001;
;;588;0.0001;
;;589;0.0001;
;;590;0.0001;
;;591;0.0001;
;;592;0.0001;
;;593;0.0002;
;;594;0.0001;
;;595;0.0002;
;;596;0.0002;
;;597;0.0002;
;;598;0.0002;
;;599;0.0001;
;;600;0.0002;
;;601;0.0002;
;;602;0.0001;
;;603;0.0001;
;;604;0.0001;
;;605;0.0001;
;;606;0.0001;
;;607;0.0002;
;;608;0.0002;
;;609;0.0002;
;;610;0.0002;
;;611;0.0001;
;;612;0.0001;
;;613;0.0002;
;;614;0.0002;
;;615;0.0002;
;;616;0.0002;
;;617;0.0002;
;;618;0.0002;
;;619;0.0002;
;;620;0.0002;
;;621;0.0002;
;;622;0.0002;
;;623;0.0002;
;;624;0.0002;
;;625;0.0002;
;;626;0.0002;
;;627;0.0003;
;;628;0.0003;
;;629;0.0003;
;;630;0.0004;
;;631;0.0004;
;;632;0.0004;
;;633;0.0005;
;;634;0.0005;
;;635;0.0005;
;;636;0.0006;
;;637;0.0006;
;;638;0.0006;
;;639;0.0007;
;;640;0.0008;
;;641;0.0009;
;;642;0.0011;
;;643;0.0013;
;;644;0.0015;
;;645;0.0017;
;;646;0.0021;
;;647;0.0024;
;;648;0.0028;
;;649;0.0033;
;;650;0.0039;
;;651;0.0046;
;;652;0.0054;
;;653;0.0059;
;;654;0.0061;
;;655;0.0059;
;;656;0.0054;
;;657;0.0047;
;;658;0.0041;
;;659;0.0036;
;;660;0.0032;
;;661;0.0029;
;;662;0.0026;
;;663;0.0024;
;;664;0.0023;
;;665;0.0023;
;;666;0.0023;
;;667;0.0024;
;;668;0.0025;
;;669;0.0025;
;;670;0.0023;
;;671;0.0021;
;;672;0.0017;
;;673;0.0014;
;;674;0.0011;
;;675;0.0008;
;;676;0.0007;
;;677;0.0005;
;;678;0.0005;
;;679;0.0004;
;;680;0.0004;
;;681;0.0003;
;;682;0.0003;
;;683;0.0003;
;;684;0.0003;
;;685;0.0003;
;;686;0.0003;
;;687;0.0003;
;;688;0.0003;
;;689;0.0004;
;;690;0.0004;
;;691;0.0005;
;;692;0.0006;
;;693;0.0008;
;;694;0.0010;
;;695;0.0014;
;;696;0.0018;
;;697;0.0023;
;;698;0.0025;
;;699;0.0027;
;;700;0.0026;
;;701;0.0024;
;;702;0.0022;
;;703;0.0020;
;;704;0.0018;
;;705;0.0018;
;;706;0.0018;
;;707;0.0018;
;;708;0.0019;
;;709;0.0018;
;;710;0.0017;
;;711;0.0016;
;;712;0.0014;
;;713;0.0012;
;;714;0.0010;
;;715;0.0009;
;;716;0.0008;
;;717;0.0007;
;;718;0.0006;
;;719;0.0005;
;;720;0.0005;
;;721;0.0004;
;;722;0.0004;
;;723;0.0004;
;;724;0.0004;
;;725;0.0003;
;;726;0.0003;
;;727;0.0003;
;;728;0.0003;
;;729;0.0003;
;;730;0.0003;
;;731;0.0003;
;;732;0.0003;
;;733;0.0003;
;;734;0.0003;
;;735;0.0003;
;;736;0.0003;
;;737;0.0003;
;;738;0.0003;
;;739;0.0003;
;;740;0.0003;
;;741;0.0003;
;;742;0.0003;
;;743;0.0003;
;;744;0.0003;
;;745;0.0003;
;;746;0.0003;
;;747;0.0003;
;;748;0.0003;
;;749;0.0003;
;;750;0.0003;
;;751;0.0004;
;;752;0.0004;
;;753;0.0004;
;;754;0.0004;
;;755;0.0005;
;;756;0.0005;
;;757;0.0006;
;;758;0.0007;
;;759;0.0008;
;;760;0.0009;
;;761;0.0010;
;;762;0.0012;
;;763;0.0013;
;;764;0.0015;
;;765;0.0018;
;;766;0.0020;
;;767;0.0024;
;;768;0.0028;
;;769;0.0032;
;;770;0.0037;
;;771;0.0042;
;;772;0.0048;
;;773;0.0054;
;;774;0.0062;
;;775;0.0071;
;;776;0.0082;
;;777;0.0098;
;;778;0.0117;
;;779;0.0141;
;;780;0.0171;
;;781;0.0211;
;;782;0.0263;
;;783;0.0327;
;;784;0.0405;
;;785;0.0506;
;;786;0.0643;
;;787;0.0815;
;;788;0.1017;
;;789;0.1243;
;;790;0.1454;
;;791;0.1657;
;;792;0.1841;
;;793;0.2029;
;;794;0.2236;
;;795;0.2531;
;;796;0.2986;
;;797;0.3716;
;;798;0.4794;
;;799;0.6091;
;;800;0.7484;
;;801;0.8704;
;;802;0.9590;
;;803;1.0000;
;;804;0.9862;
;;805;0.9251;
;;806;0.8365;
;;807;0.7372;
;;808;0.6411;
;;809;0.5575;
;;810;0.4894;
;;811;0.4366;
;;812;0.3972;
;;813;0.3708;
;;814;0.3487;
;;815;0.3295;
;;816;0.3088;
;;817;0.2855;
;;818;0.2588;
;;819;0.2310;
;;820;0.2032;
;;821;0.1768;
;;822;0.1527;
;;823;0.1320;
;;824;0.1137;
;;825;0.0988;
;;826;0.0861;
;;827;0.0751;
;;828;0.0656;
;;829;0.0572;
;;830;0.0501;
;;831;0.0440;
;;832;0.0384;
;;833;0.0336;
;;834;0.0293;
;;835;0.0257;
;;836;0.0227;
;;837;0.0202;
;;838;0.0180;
;;839;0.0160;
;;840;0.0142;
;;841;0.0126;
;;842;0.0113;
;;843;0.0101;
;;844;0.0090;
;;845;0.0080;
;;846;0.0072;
;;847;0.0064;
;;848;0.0057;
;;849;0.0052;
;;850;0.0047;
;;851;0.0042;
;;852;0.0038;
;;853;0.0033;
;;854;0.0030;
;;855;0.0027;
;;856;0.0024;
;;857;0.0021;
;;858;0.0019;
;;859;0.0017;
;;860;0.0015;
;;861;0.0014;
;;862;0.0013;
;;863;0.0012;
;;864;0.0011;
;;865;0.0010;
;;866;0.0010;
;;867;0.0009;
;;868;0.0009;
;;869;0.0008;
;;870;0.0008;
;;871;0.0008;
;;872;0.0007;
;;873;0.0007;
;;874;0.0007;
;;875;0.0007;
;;876;0.0007;
;;877;0.0007;
;;878;0.0007;
;;879;0.0007;
;;880;0.0007;
;;881;0.0007;
;;882;0.0008;
;;883;0.0008;
;;884;0.0008;
;;885;0.0008;
;;886;0.0008;
;;887;0.0009;
;;888;0.0009;
;;889;0.0010;
;;890;0.0011;
;;891;0.0012;
;;892;0.0013;
;;893;0.0014;
;;894;0.0015;
;;895;0.0017;
;;896;0.0018;
;;897;0.0019;
;;898;0.0021;
;;899;0.0023;
