Absorption wavelength (nm);normalized Absorption;emission wavelength (nm);Normalized emission;
324;0.0987;360;0.0007;
325;0.1004;361;0.0007;
326;0.0996;362;0.0008;
327;0.1022;363;0.0008;
328;0.1057;364;0.0007;
329;0.1066;365;0.0007;
330;0.1135;366;0.0007;
331;0.1170;367;0.0007;
332;0.1231;368;0.0007;
333;0.1293;369;0.0007;
334;0.1371;370;0.0007;
335;0.1424;371;0.0007;
336;0.1511;372;0.0006;
337;0.1581;373;0.0006;
338;0.1642;374;0.0006;
339;0.1712;375;0.0006;
340;0.1817;376;0.0006;
341;0.1921;377;0.0006;
342;0.2017;378;0.0007;
343;0.2157;379;0.0007;
344;0.2271;380;0.0007;
345;0.2428;381;0.0007;
346;0.2611;382;0.0006;
347;0.2760;383;0.0007;
348;0.2934;384;0.0007;
349;0.3127;385;0.0008;
350;0.3293;386;0.0009;
351;0.3459;387;0.0011;
352;0.3607;388;0.0013;
353;0.3782;389;0.0016;
354;0.3904;390;0.0021;
355;0.4061;391;0.0027;
356;0.4166;392;0.0033;
357;0.4271;393;0.0043;
358;0.4349;394;0.0055;
359;0.4507;395;0.0068;
360;0.4690;396;0.0079;
361;0.4795;397;0.0094;
362;0.4969;398;0.0108;
363;0.5188;399;0.0122;
364;0.5450;400;0.0141;
365;0.5677;401;0.0172;
366;0.5948;402;0.0217;
367;0.6175;403;0.0267;
368;0.6384;404;0.0343;
369;0.6576;405;0.0444;
370;0.6707;406;0.0580;
371;0.6856;407;0.0752;
372;0.6961;408;0.0954;
373;0.7057;409;0.1195;
374;0.7162;410;0.1513;
375;0.7231;411;0.1892;
376;0.7231;412;0.2308;
377;0.7240;413;0.2780;
378;0.7223;414;0.3299;
379;0.7135;415;0.3851;
380;0.7092;416;0.4423;
381;0.7022;417;0.5005;
382;0.6952;418;0.5605;
383;0.6891;419;0.6196;
384;0.6865;420;0.6754;
385;0.6821;421;0.7294;
386;0.6795;422;0.7808;
387;0.6742;423;0.8262;
388;0.6699;424;0.8676;
389;0.6620;425;0.9023;
390;0.6541;426;0.9318;
391;0.6489;427;0.9551;
392;0.6428;428;0.9732;
393;0.6419;429;0.9881;
394;0.6445;430;0.9977;
395;0.6533;431;1.0000;
396;0.6672;432;0.9986;
397;0.6900;433;0.9963;
398;0.7162;434;0.9942;
399;0.7485;435;0.9877;
400;0.7886;436;0.9786;
401;0.8262;437;0.9725;
402;0.8690;438;0.9632;
403;0.9083;439;0.9577;
404;0.9424;440;0.9479;
405;0.9721;441;0.9388;
406;0.9913;442;0.9318;
407;1.0000;443;0.9230;
408;0.9939;444;0.9148;
409;0.9764;445;0.9081;
410;0.9415;446;0.8979;
411;0.8987;447;0.8872;
412;0.8384;448;0.8779;
413;0.7773;449;0.8655;
414;0.7057;450;0.8532;
415;0.6367;451;0.8390;
416;0.5729;452;0.8241;
417;0.5328;453;0.8085;
418;0.4262;454;0.7915;
419;0.3607;455;0.7722;
420;0.3083;456;0.7524;
421;0.2568;457;0.7322;
422;0.2166;458;0.7103;
423;0.1808;459;0.6887;
424;0.1459;460;0.6680;
425;0.1214;461;0.6459;
426;0.0996;462;0.6219;
427;0.0821;463;0.5991;
428;0.0664;464;0.5770;
429;0.0568;465;0.5551;
430;0.0463;466;0.5335;
431;0.0393;467;0.5135;
432;0.0341;468;0.4951;
433;0.0279;469;0.4737;
434;0.0245;470;0.4572;
435;0.0218;471;0.4395;
436;0.0192;472;0.4221;
437;0.0183;473;0.4044;
438;0.0157;474;0.3876;
439;0.0148;475;0.3709;
440;0.0140;476;0.3560;
441;0.0131;477;0.3413;
442;0.0140;478;0.3283;
443;0.0122;479;0.3146;
444;0.0122;480;0.3018;
445;0.0114;481;0.2894;
446;0.0114;482;0.2773;
447;0.0114;483;0.2666;
448;0.0105;484;0.2552;
449;0.0114;485;0.2455;
450;0.0105;486;0.2348;
451;0.0096;487;0.2239;
452;0.0105;488;0.2117;
453;0.0096;489;0.2013;
454;0.0096;490;0.1929;
455;0.0105;491;0.1835;
456;0.0096;492;0.1750;
457;0.0096;493;0.1680;
458;0.0087;494;0.1619;
459;0.0096;495;0.1560;
460;0.0096;496;0.1510;
461;0.0105;497;0.1444;
462;0.0096;498;0.1380;
463;0.0096;499;0.1322;
464;0.0105;500;0.1266;
465;0.0105;501;0.1211;
466;0.0105;502;0.1157;
467;0.0096;503;0.1108;
468;0.0105;504;0.1052;
469;0.0105;505;0.1001;
470;0.0096;506;0.0950;
471;0.0105;507;0.0908;
472;0.0096;508;0.0867;
473;0.0096;509;0.0832;
474;0.0105;510;0.0795;
475;0.0096;511;0.0758;
476;0.0096;512;0.0725;
477;0.0096;513;0.0687;
478;0.0087;514;0.0654;
479;0.0096;515;0.0621;
480;0.0096;516;0.0595;
481;0.0087;517;0.0566;
482;0.0096;518;0.0536;
483;0.0096;519;0.0511;
484;0.0096;520;0.0488;
485;0.0096;521;0.0470;
486;0.0087;522;0.0440;
487;0.0096;523;0.0416;
488;0.0087;524;0.0397;
489;0.0087;525;0.0377;
490;0.0087;526;0.0353;
491;0.0087;527;0.0335;
492;0.0096;528;0.0314;
493;0.0087;529;0.0297;
494;0.0087;530;0.0277;
495;0.0087;531;0.0263;
496;0.0087;532;0.0248;
497;0.0087;533;0.0236;
498;0.0087;534;0.0224;
499;0.0079;535;0.0213;
500;0.0087;536;0.0202;
501;0.0087;537;0.0193;
502;0.0087;538;0.0184;
;;539;0.0177;
;;540;0.0170;
;;541;0.0163;
;;542;0.0155;
;;543;0.0149;
;;544;0.0143;
;;545;0.0135;
;;546;0.0130;
;;547;0.0125;
;;548;0.0121;
;;549;0.0116;
;;550;0.0111;
;;551;0.0104;
;;552;0.0099;
;;553;0.0095;
;;554;0.0090;
;;555;0.0087;
;;556;0.0082;
;;557;0.0079;
;;558;0.0074;
;;559;0.0070;
;;560;0.0069;
;;561;0.0066;
;;562;0.0063;
;;563;0.0061;
;;564;0.0059;
;;565;0.0056;
;;566;0.0053;
;;567;0.0051;
;;568;0.0048;
;;569;0.0046;
;;570;0.0045;
;;571;0.0043;
;;572;0.0041;
;;573;0.0039;
;;574;0.0037;
;;575;0.0035;
;;576;0.0034;
;;577;0.0033;
;;578;0.0032;
;;579;0.0030;
;;580;0.0029;
;;581;0.0028;
;;582;0.0027;
;;583;0.0025;
;;584;0.0024;
;;585;0.0023;
;;586;0.0023;
;;587;0.0022;
;;588;0.0022;
;;589;0.0021;
;;590;0.0020;
;;591;0.0020;
;;592;0.0019;
;;593;0.0018;
;;594;0.0017;
;;595;0.0016;
;;596;0.0015;
;;597;0.0015;
;;598;0.0014;
;;599;0.0014;
;;600;0.0013;
;;601;0.0013;
;;602;0.0012;
;;603;0.0011;
;;604;0.0011;
;;605;0.0011;
;;606;0.0011;
;;607;0.0010;
;;608;0.0010;
;;609;0.0010;
;;610;0.0010;
;;611;0.0009;
;;612;0.0009;
;;613;0.0009;
;;614;0.0008;
;;615;0.0008;
;;616;0.0008;
;;617;0.0007;
;;618;0.0007;
;;619;0.0007;
;;620;0.0007;
;;621;0.0006;
;;622;0.0006;
;;623;0.0006;
;;624;0.0006;
;;625;0.0006;
;;626;0.0006;
;;627;0.0006;
;;628;0.0006;
;;629;0.0006;
;;630;0.0006;
;;631;0.0005;
;;632;0.0005;
;;633;0.0005;
;;634;0.0004;
;;635;0.0004;
;;636;0.0004;
;;637;0.0004;
;;638;0.0004;
;;639;0.0004;
;;640;0.0004;
;;641;0.0004;
;;642;0.0004;
;;643;0.0004;
;;644;0.0004;
;;645;0.0004;
;;646;0.0004;
;;647;0.0003;
;;648;0.0003;
;;649;0.0003;
;;650;0.0003;
;;651;0.0003;
;;652;0.0003;
;;653;0.0003;
;;654;0.0003;
;;655;0.0003;
;;656;0.0003;
;;657;0.0003;
;;658;0.0003;
;;659;0.0003;
;;660;0.0003;
;;661;0.0003;
;;662;0.0003;
;;663;0.0002;
;;664;0.0002;
;;665;0.0003;
;;666;0.0003;
;;667;0.0003;
;;668;0.0002;
;;669;0.0003;
;;670;0.0003;
;;671;0.0003;
;;672;0.0003;
;;673;0.0003;
;;674;0.0003;
;;675;0.0003;
;;676;0.0003;
;;677;0.0002;
;;678;0.0002;
;;679;0.0002;
;;680;0.0002;
;;681;0.0003;
;;682;0.0002;
;;683;0.0003;
;;684;0.0003;
;;685;0.0003;
;;686;0.0005;
;;687;0.0007;
;;688;0.0011;
;;689;0.0013;
;;690;0.0017;
;;691;0.0023;
;;692;0.0028;
;;693;0.0032;
;;694;0.0037;
;;695;0.0040;
;;696;0.0043;
;;697;0.0044;
;;698;0.0045;
;;699;0.0043;
;;700;0.0040;
;;701;0.0036;
;;702;0.0032;
;;703;0.0028;
;;704;0.0023;
;;705;0.0019;
;;706;0.0015;
;;707;0.0012;
;;708;0.0009;
;;709;0.0007;
;;710;0.0006;
;;711;0.0004;
;;712;0.0004;
;;713;0.0003;
;;714;0.0003;
;;715;0.0003;
;;716;0.0003;
;;717;0.0003;
;;718;0.0003;
;;719;0.0002;
;;720;0.0002;
;;721;0.0002;
;;722;0.0002;
;;723;0.0002;
;;724;0.0002;
;;725;0.0002;
;;726;0.0002;
;;727;0.0002;
;;728;0.0002;
;;729;0.0002;
;;730;0.0002;
;;731;0.0002;
;;732;0.0002;
;;733;0.0002;
;;734;0.0002;
;;735;0.0002;
;;736;0.0002;
;;737;0.0002;
;;738;0.0002;
;;739;0.0002;
;;740;0.0002;
;;741;0.0002;
;;742;0.0002;
;;743;0.0002;
;;744;0.0002;
;;745;0.0002;
;;746;0.0002;
;;747;0.0002;
;;748;0.0002;
;;749;0.0002;
;;750;0.0002;
;;751;0.0002;
;;752;0.0002;
;;753;0.0002;
;;754;0.0001;
;;755;0.0002;
;;756;0.0002;
;;757;0.0002;
;;758;0.0002;
;;759;0.0002;
;;760;0.0002;
;;761;0.0002;
;;762;0.0002;
;;763;0.0002;
;;764;0.0002;
;;765;0.0002;
;;766;0.0002;
;;767;0.0002;
;;768;0.0002;
;;769;0.0002;
;;770;0.0002;
;;771;0.0002;
;;772;0.0002;
;;773;0.0002;
;;774;0.0002;
;;775;0.0002;
;;776;0.0002;
;;777;0.0002;
;;778;0.0002;
;;779;0.0002;
;;780;0.0002;
;;781;0.0002;
;;782;0.0002;
;;783;0.0002;
;;784;0.0002;
;;785;0.0003;
;;786;0.0002;
;;787;0.0003;
;;788;0.0003;
;;789;0.0003;
;;790;0.0003;
;;791;0.0003;
;;792;0.0004;
;;793;0.0004;
;;794;0.0004;
;;795;0.0004;
;;796;0.0004;
;;797;0.0004;
;;798;0.0004;
;;799;0.0004;
;;800;0.0004;
;;801;0.0005;
;;802;0.0006;
;;803;0.0006;
;;804;0.0006;
;;805;0.0007;
;;806;0.0008;
;;807;0.0009;
;;808;0.0010;
;;809;0.0011;
;;810;0.0012;
;;811;0.0013;
;;812;0.0016;
;;813;0.0018;
;;814;0.0019;
;;815;0.0021;
;;816;0.0023;
;;817;0.0026;
;;818;0.0029;
;;819;0.0032;
;;820;0.0034;
;;821;0.0037;
;;822;0.0039;
;;823;0.0043;
;;824;0.0045;
;;825;0.0048;
;;826;0.0051;
;;827;0.0053;
;;828;0.0057;
;;829;0.0062;
;;830;0.0065;
;;831;0.0068;
;;832;0.0071;
;;833;0.0074;
;;834;0.0078;
;;835;0.0080;
;;836;0.0083;
;;837;0.0085;
;;838;0.0086;
;;839;0.0088;
;;840;0.0089;
;;841;0.0090;
;;842;0.0092;
;;843;0.0093;
;;844;0.0095;
;;845;0.0097;
;;846;0.0098;
;;847;0.0099;
;;848;0.0100;
;;849;0.0099;
;;850;0.0100;
;;851;0.0101;
;;852;0.0101;
;;853;0.0102;
;;854;0.0100;
;;855;0.0100;
;;856;0.0101;
;;857;0.0101;
;;858;0.0100;
;;859;0.0100;
;;860;0.0099;
;;861;0.0099;
;;862;0.0098;
;;863;0.0099;
;;864;0.0097;
;;865;0.0098;
;;866;0.0098;
;;867;0.0098;
;;868;0.0097;
;;869;0.0096;
;;870;0.0095;
;;871;0.0095;
;;872;0.0095;
;;873;0.0094;
;;874;0.0094;
